UTR-2 one section northern sky survey. Averaged observational data at sections No. 5 and 6 of the southern UTR-2 antenna.

  RA2000(h)      DEC2000(deg)     T25(kK)          T20(kK)        T16.7(kK)       T14.7(kK)      T12.6(kK)        T10(kK)

    0.00	   -15.00	  26.320	   28.493	   48.966	   67.101	  152.772	  327.175	 
    0.50	   -15.00	  26.806	   28.598	   47.283	   66.166	  139.568	  289.871	 
    1.00	   -15.00	  29.224	   28.324	   46.013	   61.637	  128.466	  259.910	 
    1.50	   -15.00	  26.092	   26.725	   46.293	   57.326	  132.329	  229.543	 
    2.00	   -15.00	  27.590	   27.660	   49.922	   60.545	  130.587	  262.348	 
    2.50	   -15.00	  26.066	   26.526	   50.916	   57.775	  133.720	  253.957	 
    3.00	   -15.00	  21.793	   22.368	   47.289	   56.066	  131.099	  303.775	 
    3.50	   -15.00	  24.461	   23.040	   46.764	   57.712	  138.953	  299.732	 
    4.00	   -15.00	  22.575	   23.904	   41.585	   54.804	  124.549	  274.440	 
    4.50	   -15.00	  20.273	   20.663	   37.920	   51.293	  115.281	  215.041	 
    5.00	   -15.00	  20.404	   20.951	   38.445	   52.118	  103.242	  202.602	 
    5.50	   -15.00	  26.981	   21.983	   41.549	   55.034	  105.533	  212.160	 
    6.00	   -15.00	  28.571	   24.591	   45.374	   59.117	  116.113	  232.825	 
    6.50	   -15.00	  24.395	   27.432	   49.534	   63.784	  120.833	  251.366	 
    7.00	   -15.00	  23.841	   28.259	   52.777	   68.796	  118.876	  271.304	 
    7.50	   -15.00	  23.669	   26.319	   50.647	   64.487	  112.086	  270.376	 
    8.00	   -15.00	  21.255	   21.881	   40.790	   54.411	  104.022	  224.521	 
    8.50	   -15.00	  16.887	   17.847	   35.079	   44.910	   89.585	  184.679	 
    9.00	   -15.00	  16.421	   16.953	   31.914	   39.473	   80.450	  176.254	 
    9.50	   -15.00	  16.836	   16.837	   30.892	   37.076	   78.156	  174.577	 
   10.00	   -15.00	  17.077	   17.336	   33.283	   41.153	   81.408	  189.557	 
   10.50	   -15.00	  16.980	   19.214	   36.113	   47.894	   85.862	  219.075	 
   11.00	   -15.00	  17.212	   21.094	   35.818	   44.217	   84.968	  228.485	 
   11.50	   -15.00	  16.892	   20.140	   34.794	   42.147	   79.553	  209.778	 
   12.00	   -15.00	  15.966	   18.953	   35.756	   43.427	   80.345	  193.008	 
   12.50	   -15.00	  16.483	   20.533	   38.310	   45.563	   82.549	  192.780	 
   13.00	   -15.00	  15.858	   21.099	   39.403	   46.658	   87.589	  186.824	 
   13.50	   -15.00	  15.547	   21.142	   40.116	   48.097	   97.657	  186.233	 
   14.00	   -15.00	  16.531	   22.707	   42.886	   52.247	  109.743	  237.544	 
   14.50	   -15.00	  18.188	   23.969	   47.840	   60.277	  124.584	  252.229	 
   15.00	   -15.00	  19.385	   27.115	   54.844	   68.754	  132.827	  262.249	 
   15.50	   -15.00	  20.361	   32.242	   58.458	   69.291	  126.862	  261.581	 
   16.00	   -15.00	  21.440	   33.905	   52.987	   66.520	  121.809	  238.587	 
   16.50	   -15.00	  23.801	   33.324	   58.880	   76.749	  142.735	  257.979	 
   17.00	   -15.00	  30.382	   38.228	   75.056	   97.396	  188.823	  369.912	 
   17.50	   -15.00	  33.528	   53.316	  111.994	  137.493	  273.142	  630.643	 
   18.00	   -15.00	  37.846	   70.969	  138.663	  181.950	  395.974	  855.897	 
   18.50	   -15.00	  41.665	   86.641	  155.048	  260.933	  510.424	  965.191	 
   19.00	   -15.00	  44.945	   94.401	  184.885	  276.870	  571.247	 1072.756	 
   19.50	   -15.00	  37.631	   94.585	  194.554	  292.703	  637.486	 1192.396	 
   20.00	   -15.00	  39.902	  105.495	  190.970	  260.235	  643.322	 1196.286	 
   20.50	   -15.00	  35.433	   61.662	  152.945	  213.293	  499.052	 1066.828	 
   21.00	   -15.00	  35.460	   41.846	   95.195	  144.516	  446.355	  986.908	 
   21.50	   -15.00	  29.385	   37.488	   81.462	  138.501	  414.653	  770.708	 
   22.00	   -15.00	  30.455	   34.194	   83.675	  122.849	  367.755	  639.828	 
   22.50	   -15.00	  29.730	   32.178	   78.768	  123.797	  317.691	  470.807	 
   23.00	   -15.00	  27.246	   26.757	   59.744	   97.376	  243.180	  494.210	 
   23.50	   -15.00	  27.456	   26.856	   50.028	   75.640	  208.597	  391.962	 
    0.00	   -13.00	  22.671	   26.761	   47.761	   66.641	  155.029	  309.246	 
    0.50	   -13.00	  21.638	   26.393	   47.270	   65.689	  140.806	  270.133	 
    1.00	   -13.00	  25.161	   27.736	   44.894	   60.778	  127.099	  242.611	 
    1.50	   -13.00	  24.617	   26.158	   43.431	   58.323	  132.808	  235.354	 
    2.00	   -13.00	  27.282	   28.430	   47.965	   58.832	  130.439	  264.874	 
    2.50	   -13.00	  24.378	   26.674	   48.796	   57.450	  131.764	  263.048	 
    3.00	   -13.00	  21.215	   22.183	   44.923	   55.140	  133.937	  299.811	 
    3.50	   -13.00	  21.605	   23.282	   47.509	   59.413	  136.062	  288.120	 
    4.00	   -13.00	  19.877	   23.518	   44.507	   56.009	  124.779	  266.821	 
    4.50	   -13.00	  18.772	   21.813	   38.719	   52.953	  113.623	  210.929	 
    5.00	   -13.00	  20.978	   21.238	   39.592	   53.588	  104.764	  197.527	 
    5.50	   -13.00	  22.959	   22.357	   43.148	   56.136	  105.414	  210.526	 
    6.00	   -13.00	  26.235	   25.427	   46.335	   60.488	  113.384	  231.418	 
    6.50	   -13.00	  23.150	   28.021	   50.326	   65.989	  121.736	  248.413	 
    7.00	   -13.00	  22.014	   29.381	   55.504	   70.551	  118.842	  269.147	 
    7.50	   -13.00	  21.122	   27.578	   50.853	   64.022	  111.223	  269.920	 
    8.00	   -13.00	  18.925	   22.193	   41.702	   53.720	  103.165	  231.145	 
    8.50	   -13.00	  16.265	   18.205	   34.970	   44.589	   90.712	  187.354	 
    9.00	   -13.00	  15.508	   16.904	   32.115	   39.360	   80.717	  179.085	 
    9.50	   -13.00	  16.253	   17.460	   31.575	   37.468	   77.857	  174.664	 
   10.00	   -13.00	  16.695	   18.077	   33.459	   41.354	   80.099	  185.392	 
   10.50	   -13.00	  16.918	   19.320	   36.708	   47.592	   84.999	  216.276	 
   11.00	   -13.00	  17.282	   21.974	   39.083	   46.802	   83.426	  225.083	 
   11.50	   -13.00	  16.634	   20.591	   36.843	   44.541	   82.936	  230.336	 
   12.00	   -13.00	  17.004	   20.276	   37.184	   45.154	   82.098	  195.288	 
   12.50	   -13.00	  17.336	   21.254	   39.531	   47.633	   84.476	  194.809	 
   13.00	   -13.00	  17.150	   21.491	   40.644	   48.405	   90.031	  195.892	 
   13.50	   -13.00	  16.017	   21.870	   41.609	   49.769	   98.917	  206.612	 
   14.00	   -13.00	  17.054	   22.873	   44.231	   53.835	  113.434	  235.668	 
   14.50	   -13.00	  18.731	   25.082	   48.883	   61.838	  125.178	  261.778	 
   15.00	   -13.00	  19.471	   27.965	   58.521	   71.727	  133.436	  288.518	 
   15.50	   -13.00	  20.522	   32.411	   63.078	   72.306	  126.933	  273.389	 
   16.00	   -13.00	  20.839	   35.033	   58.660	   69.505	  120.788	  232.958	 
   16.50	   -13.00	  23.428	   33.495	   58.396	   74.804	  138.585	  239.468	 
   17.00	   -13.00	  28.732	   38.380	   76.434	   98.766	  183.127	  409.939	 
   17.50	   -13.00	  31.165	   53.732	  116.669	  141.122	  274.027	  621.799	 
   18.00	   -13.00	  36.407	   70.873	  145.902	  186.728	  393.204	  872.276	 
   18.50	   -13.00	  40.868	   87.393	  163.680	  267.603	  500.693	  982.593	 
   19.00	   -13.00	  45.486	   95.946	  184.960	  287.980	  562.822	 1091.812	 
   19.50	   -13.00	  37.328	   91.948	  197.872	  275.854	  614.372	 1186.014	 
   20.00	   -13.00	  39.975	   98.434	  197.054	  262.843	  615.722	 1184.901	 
   20.50	   -13.00	  33.518	   65.256	  159.657	  240.935	  556.789	 1166.641	 
   21.00	   -13.00	  34.395	   44.556	   97.400	  156.001	  486.213	  962.496	 
   21.50	   -13.00	  28.420	   38.883	   78.685	  148.054	  432.942	  961.538	 
   22.00	   -13.00	  30.334	   35.471	   81.317	  132.901	  360.366	  812.094	 
   22.50	   -13.00	  27.959	   31.372	   77.071	  123.164	  309.788	  538.939	 
   23.00	   -13.00	  24.890	   27.402	   56.994	   99.722	  241.902	  514.223	 
   23.50	   -13.00	  25.603	   25.992	   49.069	   72.682	  196.384	  373.184	 
    0.00	   -11.00	  22.945	   25.338	   46.550	   63.560	  144.132	  293.112	 
    0.50	   -11.00	  21.344	   25.506	   44.837	   63.365	  132.708	  254.749	 
    1.00	   -11.00	  24.096	   25.678	   44.357	   58.516	  125.133	  239.765	 
    1.50	   -11.00	  22.818	   25.114	   44.308	   57.006	  126.036	  238.614	 
    2.00	   -11.00	  23.747	   27.443	   47.629	   57.252	  125.280	  252.335	 
    2.50	   -11.00	  22.349	   26.606	   48.910	   55.628	  128.322	  247.828	 
    3.00	   -11.00	  21.145	   22.805	   45.356	   54.981	  123.116	  288.035	 
    3.50	   -11.00	  20.698	   23.518	   48.634	   63.875	  130.475	  284.580	 
    4.00	   -11.00	  18.911	   24.168	   47.074	   58.798	  124.039	  258.900	 
    4.50	   -11.00	  21.781	   22.380	   40.905	   57.147	  114.873	  206.383	 
    5.00	   -11.00	  22.154	   21.901	   41.847	   56.857	  104.052	  190.084	 
    5.50	   -11.00	  22.043	   23.616	   44.148	   58.907	  105.084	  203.068	 
    6.00	   -11.00	  24.676	   27.074	   47.911	   64.466	  118.913	  228.386	 
    6.50	   -11.00	  22.240	   29.769	   54.381	   71.464	  119.123	  247.674	 
    7.00	   -11.00	  21.891	   30.809	   59.532	   73.167	  118.869	  274.949	 
    7.50	   -11.00	  20.926	   28.678	   52.451	   64.332	  114.062	  261.865	 
    8.00	   -11.00	  16.825	   22.927	   42.454	   53.066	  105.749	  227.888	 
    8.50	   -11.00	  14.645	   18.352	   36.095	   45.015	   93.290	  192.459	 
    9.00	   -11.00	  14.312	   17.433	   32.687	   40.685	   83.503	  177.666	 
    9.50	   -11.00	  15.322	   17.623	   32.267	   39.090	   79.234	  172.629	 
   10.00	   -11.00	  15.342	   18.217	   33.885	   41.152	   80.625	  180.776	 
   10.50	   -11.00	  16.355	   19.733	   37.228	   48.788	   86.363	  211.231	 
   11.00	   -11.00	  16.525	   22.597	   42.118	   50.979	   85.426	  220.437	 
   11.50	   -11.00	  16.433	   23.354	   41.078	   48.143	   86.839	  224.120	 
   12.00	   -11.00	  17.714	   21.815	   40.159	   48.358	   84.383	  214.579	 
   12.50	   -11.00	  17.821	   22.664	   42.817	   50.027	   87.559	  218.460	 
   13.00	   -11.00	  17.073	   23.282	   43.401	   51.343	   94.144	  222.764	 
   13.50	   -11.00	  16.318	   23.401	   43.976	   52.677	  104.398	  225.261	 
   14.00	   -11.00	  17.597	   24.491	   47.368	   56.522	  120.110	  240.783	 
   14.50	   -11.00	  19.275	   26.215	   52.336	   64.645	  130.590	  271.499	 
   15.00	   -11.00	  19.552	   29.353	   62.311	   75.528	  137.900	  298.666	 
   15.50	   -11.00	  20.179	   32.724	   68.927	   77.428	  126.795	  303.433	 
   16.00	   -11.00	  20.375	   35.161	   64.053	   72.613	  122.823	  263.904	 
   16.50	   -11.00	  24.055	   34.768	   60.975	   77.659	  140.477	  295.703	 
   17.00	   -11.00	  24.580	   39.602	   79.199	  100.139	  189.491	  417.357	 
   17.50	   -11.00	  28.388	   56.204	  119.819	  146.146	  273.916	  624.865	 
   18.00	   -11.00	  35.988	   73.970	  157.816	  208.762	  406.501	  866.414	 
   18.50	   -11.00	  44.592	   90.445	  178.494	  265.197	  491.028	 1008.433	 
   19.00	   -11.00	  48.688	   97.782	  191.269	  294.030	  557.106	 1101.733	 
   19.50	   -11.00	  38.850	   91.372	  208.681	  327.108	  618.699	 1174.792	 
   20.00	   -11.00	  39.098	   93.351	  231.918	  333.732	  648.359	 1159.753	 
   20.50	   -11.00	  34.449	   65.981	  173.281	  279.379	  551.933	 1155.366	 
   21.00	   -11.00	  36.920	   47.954	   92.495	  169.664	  436.309	 1001.052	 
   21.50	   -11.00	  32.297	   41.859	   82.121	  146.860	  425.859	  933.611	 
   22.00	   -11.00	  26.784	   36.509	   82.993	  125.455	  332.952	  721.335	 
   22.50	   -11.00	  27.546	   32.409	   70.233	  110.120	  280.862	  562.910	 
   23.00	   -11.00	  24.909	   27.508	   55.985	   89.625	  234.187	  491.630	 
   23.50	   -11.00	  24.040	   25.163	   49.512	   71.529	  188.431	  371.349	 
    0.00	    -9.00	  20.386	   24.598	   45.807	   61.805	  135.641	  281.064	 
    0.50	    -9.00	  18.820	   24.662	   45.454	   62.487	  133.282	  247.260	 
    1.00	    -9.00	  21.177	   25.375	   45.443	   59.577	  123.281	  240.992	 
    1.50	    -9.00	  20.155	   25.061	   44.895	   57.759	  124.582	  243.136	 
    2.00	    -9.00	  21.725	   26.335	   47.930	   58.184	  123.231	  249.019	 
    2.50	    -9.00	  18.774	   26.251	   52.611	   57.622	  124.012	  257.491	 
    3.00	    -9.00	  18.009	   24.294	   48.918	   59.007	  118.108	  281.673	 
    3.50	    -9.00	  18.326	   24.767	   48.956	   65.158	  122.864	  278.633	 
    4.00	    -9.00	  18.124	   24.277	   47.322	   60.831	  123.652	  245.272	 
    4.50	    -9.00	  21.613	   23.474	   42.850	   58.152	  111.078	  198.983	 
    5.00	    -9.00	  21.252	   23.021	   43.129	   58.865	  101.651	  184.435	 
    5.50	    -9.00	  21.437	   24.344	   45.436	   59.846	  104.461	  198.011	 
    6.00	    -9.00	  23.653	   28.488	   50.971	   67.357	  117.879	  222.691	 
    6.50	    -9.00	  23.591	   30.891	   59.412	   73.969	  122.498	  249.835	 
    7.00	    -9.00	  22.558	   31.588	   63.440	   75.700	  121.467	  276.792	 
    7.50	    -9.00	  21.248	   28.989	   54.342	   66.119	  114.837	  258.003	 
    8.00	    -9.00	  17.549	   23.328	   43.697	   54.275	  103.113	  229.229	 
    8.50	    -9.00	  14.822	   18.539	   37.099	   45.717	   93.612	  190.412	 
    9.00	    -9.00	  14.575	   17.300	   32.938	   40.761	   83.981	  178.051	 
    9.50	    -9.00	  15.282	   17.569	   32.314	   39.006	   76.769	  168.986	 
   10.00	    -9.00	  15.667	   18.141	   32.991	   41.159	   79.877	  174.133	 
   10.50	    -9.00	  16.872	   19.204	   36.608	   49.002	   83.813	  202.042	 
   11.00	    -9.00	  16.848	   22.204	   41.949	   50.774	   84.756	  212.877	 
   11.50	    -9.00	  16.663	   23.319	   42.240	   49.964	   85.022	  215.791	 
   12.00	    -9.00	  17.996	   23.072	   42.307	   50.593	   86.731	  215.341	 
   12.50	    -9.00	  18.082	   24.184	   45.529	   52.918	   90.263	  219.745	 
   13.00	    -9.00	  18.006	   24.863	   46.805	   54.272	   96.073	  226.314	 
   13.50	    -9.00	  17.332	   24.939	   47.567	   54.743	  105.414	  230.107	 
   14.00	    -9.00	  18.243	   25.179	   50.009	   57.646	  116.597	  240.566	 
   14.50	    -9.00	  19.438	   27.441	   54.581	   65.031	  127.250	  269.825	 
   15.00	    -9.00	  20.025	   29.467	   63.363	   75.056	  132.366	  292.281	 
   15.50	    -9.00	  19.957	   32.278	   71.617	   78.079	  125.186	  293.026	 
   16.00	    -9.00	  22.032	   35.435	   67.946	   74.479	  123.417	  284.042	 
   16.50	    -9.00	  23.749	   35.563	   64.384	   80.307	  139.517	  324.249	 
   17.00	    -9.00	  24.208	   41.484	   82.584	  104.705	  192.366	  433.390	 
   17.50	    -9.00	  28.426	   57.314	  124.712	  154.392	  258.291	  609.359	 
   18.00	    -9.00	  36.509	   75.363	  164.026	  209.306	  379.163	  856.963	 
   18.50	    -9.00	  46.374	   90.629	  183.144	  256.096	  457.523	 1013.999	 
   19.00	    -9.00	  48.892	  100.169	  196.661	  291.236	  515.642	 1166.606	 
   19.50	    -9.00	  43.526	   90.141	  211.075	  328.399	  571.597	 1164.334	 
   20.00	    -9.00	  37.514	   85.620	  224.965	  345.322	  604.987	 1152.949	 
   20.50	    -9.00	  31.952	   65.162	  169.373	  274.664	  576.167	 1144.683	 
   21.00	    -9.00	  35.095	   46.755	   97.060	  177.656	  469.033	 1134.101	 
   21.50	    -9.00	  29.961	   43.669	   86.001	  147.810	  381.106	  920.845	 
   22.00	    -9.00	  23.344	   37.621	   82.312	  115.655	  295.311	  661.853	 
   22.50	    -9.00	  24.469	   33.221	   66.453	  102.103	  242.732	  487.427	 
   23.00	    -9.00	  23.643	   28.477	   53.372	   82.247	  213.101	  464.058	 
   23.50	    -9.00	  21.628	   25.591	   47.376	   63.535	  166.264	  351.525	 
    0.00	    -7.00	  18.523	   24.274	   46.726	   60.182	  134.859	  270.674	 
    0.50	    -7.00	  17.470	   24.524	   45.236	   60.546	  128.246	  235.817	 
    1.00	    -7.00	  20.010	   25.915	   46.207	   59.197	  125.369	  235.196	 
    1.50	    -7.00	  18.769	   25.486	   46.228	   57.373	  122.063	  249.252	 
    2.00	    -7.00	  19.708	   25.989	   48.576	   59.238	  121.416	  256.737	 
    2.50	    -7.00	  17.787	   25.514	   57.461	   59.344	  120.607	  267.158	 
    3.00	    -7.00	  16.440	   24.736	   54.186	   62.961	  112.790	  275.499	 
    3.50	    -7.00	  17.115	   25.023	   49.355	   63.292	  116.456	  263.561	 
    4.00	    -7.00	  16.408	   23.922	   45.901	   60.551	  115.799	  225.117	 
    4.50	    -7.00	  17.728	   23.610	   42.604	   59.343	  107.305	  196.951	 
    5.00	    -7.00	  17.198	   23.723	   43.130	   59.279	   99.911	  179.116	 
    5.50	    -7.00	  19.325	   25.041	   47.089	   60.075	  104.995	  194.556	 
    6.00	    -7.00	  21.795	   28.696	   52.133	   68.375	  121.098	  219.435	 
    6.50	    -7.00	  21.674	   31.577	   61.291	   74.926	  123.067	  250.803	 
    7.00	    -7.00	  20.390	   31.341	   64.166	   76.759	  120.334	  273.204	 
    7.50	    -7.00	  18.194	   28.512	   55.018	   67.728	  114.307	  260.807	 
    8.00	    -7.00	  16.170	   23.211	   43.898	   54.849	  101.808	  228.838	 
    8.50	    -7.00	  13.437	   18.158	   36.844	   45.611	   92.925	  193.865	 
    9.00	    -7.00	  12.641	   16.872	   32.629	   40.485	   81.880	  173.644	 
    9.50	    -7.00	  13.090	   17.280	   31.611	   39.009	   75.215	  162.547	 
   10.00	    -7.00	  13.675	   17.814	   32.376	   41.037	   76.639	  165.625	 
   10.50	    -7.00	  14.069	   18.739	   35.353	   47.054	   82.055	  183.260	 
   11.00	    -7.00	  15.045	   20.934	   40.244	   48.835	   84.490	  202.574	 
   11.50	    -7.00	  15.850	   22.028	   42.081	   50.124	   85.691	  208.904	 
   12.00	    -7.00	  17.328	   22.892	   43.866	   52.610	   87.985	  211.804	 
   12.50	    -7.00	  18.038	   25.242	   47.970	   55.130	   91.547	  214.899	 
   13.00	    -7.00	  17.774	   26.285	   48.793	   55.993	   95.432	  221.107	 
   13.50	    -7.00	  17.395	   25.388	   48.621	   56.276	  103.761	  228.020	 
   14.00	    -7.00	  17.783	   25.040	   51.041	   58.677	  114.116	  243.340	 
   14.50	    -7.00	  18.121	   27.733	   54.889	   65.533	  122.278	  264.148	 
   15.00	    -7.00	  18.276	   29.725	   62.473	   74.458	  127.867	  280.301	 
   15.50	    -7.00	  18.049	   31.655	   71.351	   78.244	  121.892	  279.188	 
   16.00	    -7.00	  19.791	   34.711	   71.522	   77.357	  122.435	  288.229	 
   16.50	    -7.00	  20.680	   35.818	   67.611	   82.373	  142.992	  323.536	 
   17.00	    -7.00	  22.815	   41.776	   83.632	  105.855	  189.809	  415.698	 
   17.50	    -7.00	  27.929	   57.658	  127.433	  158.069	  244.850	  575.265	 
   18.00	    -7.00	  37.383	   76.687	  167.552	  206.699	  344.089	  828.251	 
   18.50	    -7.00	  48.427	   93.561	  186.560	  251.667	  428.848	  975.662	 
   19.00	    -7.00	  49.895	   99.628	  194.313	  280.889	  464.601	 1127.178	 
   19.50	    -7.00	  40.554	   84.967	  208.038	  305.223	  532.130	 1162.249	 
   20.00	    -7.00	  33.333	   78.487	  210.765	  310.776	  573.589	 1142.974	 
   20.50	    -7.00	  29.279	   60.749	  162.340	  247.151	  564.667	 1123.330	 
   21.00	    -7.00	  35.626	   49.304	   98.655	  163.188	  439.134	 1080.645	 
   21.50	    -7.00	  30.412	   41.880	   86.792	  138.664	  335.975	  925.407	 
   22.00	    -7.00	  22.987	   38.253	   80.799	  109.148	  263.996	  645.023	 
   22.50	    -7.00	  23.477	   33.041	   64.189	   92.529	  224.906	  427.524	 
   23.00	    -7.00	  20.106	   29.002	   50.888	   75.580	  197.117	  403.784	 
   23.50	    -7.00	  19.796	   26.417	   46.951	   62.754	  162.670	  348.760	 
    0.00	    -5.00	  18.886	   25.430	   47.800	   59.050	  133.658	  265.696	 
    0.50	    -5.00	  17.776	   25.586	   46.896	   58.382	  126.799	  238.805	 
    1.00	    -5.00	  19.509	   27.402	   47.027	   58.446	  123.364	  233.381	 
    1.50	    -5.00	  18.571	   26.974	   48.286	   58.581	  123.392	  251.175	 
    2.00	    -5.00	  19.898	   27.197	   51.402	   61.723	  120.470	  277.269	 
    2.50	    -5.00	  18.241	   26.376	   60.329	   65.400	  117.747	  281.177	 
