UTR-2 one section northern sky survey. Averaged observational data at URAN-2, sections No. 5 and 6 of the southern UTR-2 antenna.

  RA2000(h)      DEC2000(deg)     T25(kK)          T20(kK)        T16.7(kK)       T14.7(kK)      

    0.00	   -15.00	  25.439	   26.432	   49.789	   68.656	  	 
    0.50	   -15.00	  25.652	   26.500	   48.973	   57.178	  	 
    1.00	   -15.00	  26.872	   26.571	   48.046	   52.303	  	 
    1.50	   -15.00	  25.270	   25.585	   48.169	   49.916	  	 
    2.00	   -15.00	  25.754	   25.481	   48.955	   49.126	  	 
    2.50	   -15.00	  24.726	   24.121	   47.734	   46.143	  	 
    3.00	   -15.00	  22.225	   21.466	   44.269	   43.721	  	 
    3.50	   -15.00	  23.111	   21.380	   42.288	   43.833	  	 
    4.00	   -15.00	  22.255	   21.673	   39.213	   41.149	  	 
    4.50	   -15.00	  20.764	   19.944	   37.935	   39.710	   	 
    5.00	   -15.00	  20.993	   20.633	   38.937	   40.769	   	 
    5.50	   -15.00	  24.327	   21.647	   40.459	   41.977	   	 
    6.00	   -15.00	  26.077	   24.395	   46.231	   46.974	  	 
    6.50	   -15.00	  24.943	   27.644	   53.278	   53.767	  	 
    7.00	   -15.00	  25.578	   29.378	   57.168	   58.550	  	 
    7.50	   -15.00	  25.546	   28.325	   54.949	   56.677	  	 
    8.00	   -15.00	  23.286	   23.937	   46.605	   48.363	  	 
    8.50	   -15.00	  19.706	   20.014	   38.811	   40.138	   	 
    9.00	   -15.00	  18.879	   18.318	   33.800	   34.977	   	 
    9.50	   -15.00	  19.459	   18.771	   34.274	   35.341	   	 
   10.00	   -15.00	  19.719	   19.397	   36.068	   37.291	   	 
   10.50	   -15.00	  19.699	   20.716	   38.217	   41.107	   	 
   11.00	   -15.00	  19.977	   22.345	   38.474	   39.363	   	 
   11.50	   -15.00	  20.359	   23.264	   39.647	   40.735	   	 
   12.00	   -15.00	  20.448	   22.602	   42.678	   44.227	   	 
   12.50	   -15.00	  21.265	   24.710	   46.748	   48.029	  	 
   13.00	   -15.00	  21.371	   25.082	   47.882	   49.046	  	 
   13.50	   -15.00	  20.482	   24.457	   46.303	   47.556	  	 
   14.00	   -15.00	  21.265	   25.743	   49.377	   51.039	  	 
   14.50	   -15.00	  22.786	   27.414	   54.993	   56.727	  	 
   15.00	   -15.00	  23.984	   30.478	   61.650	   64.373	  	 
   15.50	   -15.00	  24.936	   33.624	   63.661	   66.562	  	 
   16.00	   -15.00	  25.038	   33.934	   59.763	   79.291	  	 
   16.50	   -15.00	  26.603	   33.841	   65.983	   90.474	  	 
   17.00	   -15.00	  32.443	   41.046	   87.599	  101.979	  	 
   17.50	   -15.00	  38.206	   56.221	  127.568	  164.995	  	 
   18.00	   -15.00	  46.851	   75.012	  157.664	  187.999	  	 
   18.50	   -15.00	  47.046	   75.443	  164.084	  198.492	  	 
   19.00	   -15.00	  45.617	   80.033	  172.628	  185.576	  	 
   19.50	   -15.00	  36.751	   65.225	  138.031	  169.183	  	 
   20.00	   -15.00	  34.777	   61.892	  119.888	  142.289	  	 
   20.50	   -15.00	  30.449	   42.723	   96.517	  123.363	  	 
   21.00	   -15.00	  30.467	   34.403	   71.735	   97.238	  	 
   21.50	   -15.00	  27.395	   31.837	   64.355	   98.595	  	 
   22.00	   -15.00	  27.371	   29.453	   64.286	   89.831	  	 
   22.50	   -15.00	  26.593	   28.035	   61.421	   98.187	  	 
   23.00	   -15.00	  25.334	   25.569	   52.811	   81.734	  	 
   23.50	   -15.00	  26.388	   27.721	   53.082	   75.447	  	 
    0.00	   -13.00	  23.216	   25.611	   48.788	   64.190	  	 
    0.50	   -13.00	  22.703	   25.513	   48.753	   55.578	  	 
    1.00	   -13.00	  24.620	   26.191	   47.190	   50.936	  	 
    1.50	   -13.00	  24.276	   25.350	   46.487	   50.470	  	 
    2.00	   -13.00	  25.343	   26.152	   48.079	   48.833	  	 
    2.50	   -13.00	  23.630	   24.307	   46.604	   46.427	  	 
    3.00	   -13.00	  21.702	   21.701	   43.241	   44.120	  	 
    3.50	   -13.00	  21.520	   21.747	   42.767	   45.126	  	 
    4.00	   -13.00	  20.681	   21.662	   40.522	   42.041	  	 
    4.50	   -13.00	  19.823	   20.703	   38.338	   40.855	   	 
    5.00	   -13.00	  21.130	   20.926	   39.536	   41.791	   	 
    5.50	   -13.00	  22.365	   22.171	   41.548	   43.043	   	 
    6.00	   -13.00	  24.871	   25.121	   46.876	   48.072	  	 
    6.50	   -13.00	  24.300	   28.568	   54.290	   55.922	  	 
    7.00	   -13.00	  24.573	   30.502	   58.956	   60.412	  	 
    7.50	   -13.00	  23.914	   29.175	   54.806	   57.180	  	 
    8.00	   -13.00	  21.727	   24.170	   46.753	   48.472	  	 
    8.50	   -13.00	  19.120	   20.166	   38.495	   40.219	   	 
    9.00	   -13.00	  18.173	   18.140	   33.612	   35.030	   	 
    9.50	   -13.00	  18.979	   19.000	   34.383	   35.571	   	 
   10.00	   -13.00	  19.393	   19.729	   35.879	   37.481	   	 
   10.50	   -13.00	  19.611	   20.774	   38.422	   41.084	   	 
   11.00	   -13.00	  19.967	   22.792	   40.128	   40.670	   	 
   11.50	   -13.00	  20.216	   23.609	   40.931	   42.332	   	 
   12.00	   -13.00	  21.159	   23.540	   43.688	   45.716	   	 
   12.50	   -13.00	  21.915	   25.452	   47.702	   49.984	  	 
   13.00	   -13.00	  22.250	   25.459	   48.632	   50.560	  	 
   13.50	   -13.00	  20.642	   24.848	   46.882	   48.752	  	 
   14.00	   -13.00	  21.495	   25.958	   49.988	   52.197	  	 
   14.50	   -13.00	  23.019	   28.202	   55.537	   58.034	  	 
   15.00	   -13.00	  23.937	   31.190	   63.690	   66.359	  	 
   15.50	   -13.00	  24.903	   33.952	   65.983	   68.339	  	 
   16.00	   -13.00	  24.474	   34.874	   63.106	   80.728	  	 
   16.50	   -13.00	  26.026	   34.163	   65.757	   84.669	  	 
   17.00	   -13.00	  31.121	   41.654	   89.240	   97.901	  	 
   17.50	   -13.00	  36.085	   57.052	  130.909	  163.265	  	 
   18.00	   -13.00	  45.004	   76.164	  164.308	  188.834	  	 
   18.50	   -13.00	  46.482	   77.966	  171.128	  201.401	  	 
   19.00	   -13.00	  46.569	   84.123	  177.806	  190.194	  	 
   19.50	   -13.00	  36.805	   66.410	  141.735	  163.901	  	 
   20.00	   -13.00	  34.742	   60.695	  122.610	  139.817	  	 
   20.50	   -13.00	  29.476	   44.487	   98.919	  128.149	  	 
   21.00	   -13.00	  29.766	   36.088	   72.951	   98.433	  	 
   21.50	   -13.00	  26.807	   32.970	   63.720	   98.952	  	 
   22.00	   -13.00	  27.086	   30.182	   63.197	   90.508	  	 
   22.50	   -13.00	  25.363	   27.387	   60.095	   94.207	  	 
   23.00	   -13.00	  23.893	   25.951	   51.306	   77.886	  	 
   23.50	   -13.00	  25.113	   27.164	   52.571	   70.368	  	 
    0.00	   -11.00	  22.761	   25.040	   47.732	   58.942	  	 
    0.50	   -11.00	  22.015	   25.272	   47.277	   53.484	  	 
    1.00	   -11.00	  23.601	   25.396	   46.906	   49.885	  	 
    1.50	   -11.00	  23.003	   25.262	   47.159	   50.386	  	 
    2.00	   -11.00	  23.265	   26.222	   48.286	   49.107	  	 
    2.50	   -11.00	  22.260	   24.892	   47.342	   46.916	  	 
    3.00	   -11.00	  21.310	   22.624	   44.035	   45.318	  	 
    3.50	   -11.00	  20.795	   22.468	   43.927	   48.105	  	 
    4.00	   -11.00	  19.843	   22.402	   42.066	   44.155	  	 
    4.50	   -11.00	  21.126	   21.512	   39.783	   43.706	  	 
    5.00	   -11.00	  21.602	   21.771	   41.263	   44.418	   	 
    5.50	   -11.00	  21.895	   23.409	   42.949	   45.646	   	 
    6.00	   -11.00	  24.009	   26.448	   47.963	   50.519	  	 
    6.50	   -11.00	  23.912	   30.457	   57.368	   59.962	  	 
    7.00	   -11.00	  24.548	   32.132	   61.775	   63.041	  	 
    7.50	   -11.00	  23.610	   30.097	   55.568	   58.255	  	 
    8.00	   -11.00	  20.211	   24.744	   46.728	   48.746	  	 
    8.50	   -11.00	  17.955	   20.365	   38.672	   40.643	   	 
    9.00	   -11.00	  17.315	   18.415	   33.554	   35.775	   	 
    9.50	   -11.00	  18.308	   19.187	   34.544	   36.558	   	 
   10.00	   -11.00	  18.520	   19.863	   35.830	   37.620	   	 
   10.50	   -11.00	  19.292	   21.149	   38.592	   41.929	   	 
   11.00	   -11.00	  19.497	   23.115	   41.537	   42.892	   	 
   11.50	   -11.00	  20.178	   25.192	   43.234	   44.436	   	 
   12.00	   -11.00	  21.627	   24.545	   45.292	   47.488	   	 
   12.50	   -11.00	  22.450	   26.673	   50.189	   51.971	  	 
   13.00	   -11.00	  22.110	   26.537	   50.116	   52.188	  	 
   13.50	   -11.00	  20.795	   25.698	   48.014	   50.463	  	 
   14.00	   -11.00	  21.803	   27.085	   51.563	   53.644	  	 
   14.50	   -11.00	  23.249	   29.043	   57.300	   59.740	  	 
   15.00	   -11.00	  23.889	   32.205	   65.529	   68.212	  	 
   15.50	   -11.00	  24.449	   34.220	   68.555	   70.264	  	 
   16.00	   -11.00	  24.048	   35.409	   66.392	   79.270	  	 
   16.50	   -11.00	  26.177	   35.122	   67.073	   81.648	  	 
   17.00	   -11.00	  28.494	   42.893	   90.286	  103.610	  	 
   17.50	   -11.00	  33.919	   59.519	  131.034	  164.425	  	 
   18.00	   -11.00	  44.223	   79.835	  171.386	  201.217	  	 
   18.50	   -11.00	  49.172	   83.923	  178.287	  201.050	  	 
   19.00	   -11.00	  49.405	   89.144	  182.367	  193.493	  	 
   19.50	   -11.00	  37.860	   69.580	  149.301	  178.649	  	 
   20.00	   -11.00	  34.355	   60.859	  135.094	  155.632	  	 
   20.50	   -11.00	  29.699	   45.992	  104.153	  134.835	  	 
   21.00	   -11.00	  30.446	   38.344	   72.363	  101.254	  	 
   21.50	   -11.00	  28.345	   35.123	   66.674	   95.721	  	 
   22.00	   -11.00	  25.117	   31.086	   64.434	   85.776	  	 
   22.50	   -11.00	  24.594	   28.023	   57.704	   88.715	  	 
   23.00	   -11.00	  23.469	   26.534	   51.778	   73.010	  	 
   23.50	   -11.00	  23.707	   26.586	   52.783	   66.325	  	 
    0.00	    -9.00	  20.789	   24.888	   46.936	   54.978	  	 
    0.50	    -9.00	  20.093	   25.141	   47.430	   52.503	  	 
    1.00	    -9.00	  21.565	   25.649	   47.645	   50.912	  	 
    1.50	    -9.00	  21.226	   25.911	   47.893	   51.507	  	 
    2.00	    -9.00	  21.834	   26.349	   48.987	   50.804	  	 
    2.50	    -9.00	  20.037	   25.620	   50.261	   49.468	  	 
    3.00	    -9.00	  19.300	   24.146	   46.597	   48.513	  	 
    3.50	    -9.00	  19.302	   23.895	   45.020	   50.288	  	 
    4.00	    -9.00	  19.058	   23.057	   42.812	   46.358	  	 
    4.50	    -9.00	  20.811	   22.790	   41.334	   45.812	  	 
    5.00	    -9.00	  21.107	   23.105	   42.894	   47.174	   	 
    5.50	    -9.00	  21.627	   24.577	   44.842	   48.103	   	 
    6.00	    -9.00	  23.421	   27.812	   49.867	   52.796	  	 
    6.50	    -9.00	  24.806	   32.244	   61.085	   63.072	  	 
    7.00	    -9.00	  24.992	   33.604	   64.643	   65.841	  	 
    7.50	    -9.00	  23.625	   30.693	   56.531	   60.103	  	 
    8.00	    -9.00	  20.342	   25.188	   46.889	   49.921	  	 
    8.50	    -9.00	  17.904	   20.691	   38.660	   41.221	   	 
    9.00	    -9.00	  17.360	   18.439	   33.276	   36.020	   	 
    9.50	    -9.00	  18.177	   19.382	   34.363	   36.858	   	 
   10.00	    -9.00	  18.680	   19.967	   35.082	   37.954	   	 
   10.50	    -9.00	  19.657	   21.109	   38.159	   42.506	   	 
   11.00	    -9.00	  19.691	   22.935	   41.286	   43.420	   	 
   11.50	    -9.00	  20.457	   25.185	   43.723	   45.674	  	 
   12.00	    -9.00	  21.810	   25.330	   46.101	   48.390	  	 
   12.50	    -9.00	  22.934	   28.038	   52.485	   54.164	  	 
   13.00	    -9.00	  22.556	   27.448	   51.817	   53.520	  	 
   13.50	    -9.00	  21.472	   26.562	   49.799	   51.728	  	 
   14.00	    -9.00	  22.224	   27.728	   52.775	   54.224	  	 
   14.50	    -9.00	  23.267	   29.972	   58.224	   60.191	  	 
   15.00	    -9.00	  24.101	   32.532	   65.723	   67.846	  	 
   15.50	    -9.00	  24.034	   34.038	   69.297	   69.801	  	 
   16.00	    -9.00	  24.919	   36.094	   68.941	   74.927	  	 
   16.50	    -9.00	  25.961	   35.946	   68.664	   78.759	  	 
   17.00	    -9.00	  28.090	   44.561	   90.731	  116.351	  	 
   17.50	    -9.00	  33.585	   61.538	  130.423	  168.780	  	 
   18.00	    -9.00	  44.356	   83.059	  173.379	  204.840	  	 
   18.50	    -9.00	  51.217	   89.710	  178.048	  198.187	  	 
   19.00	    -9.00	  50.997	   94.644	  183.627	  194.139	  	 
   19.50	    -9.00	  40.479	   73.100	  154.514	  180.045	  	 
   20.00	    -9.00	  33.717	   60.569	  136.043	  158.221	  	 
   20.50	    -9.00	  28.414	   47.384	  104.719	  131.052	  	 
   21.00	    -9.00	  29.243	   38.931	   75.912	  103.284	  	 
   21.50	    -9.00	  27.027	   37.020	   70.485	   93.821	  	 
   22.00	    -9.00	  23.058	   32.218	   65.244	   80.906	  	 
   22.50	    -9.00	  22.559	   28.885	   57.028	   86.864	  	 
   23.00	    -9.00	  22.403	   27.833	   52.175	   71.771	  	 
   23.50	    -9.00	  21.763	   26.668	   51.523	   59.603	  	 
    0.00	    -7.00	  19.263	   24.994	   47.145	   52.060	  	 
    0.50	    -7.00	  18.927	   25.428	   47.258	   51.949	  	 
    1.00	    -7.00	  20.505	   26.389	   48.179	   51.630	  	 
    1.50	    -7.00	  20.176	   26.817	   48.925	   52.228	  	 
    2.00	    -7.00	  20.486	   26.848	   49.790	   52.591	  	 
    2.50	    -7.00	  19.251	   26.123	   53.550	   51.865	  	 
    3.00	    -7.00	  18.215	   25.132	   49.842	   51.680	  	 
    3.50	    -7.00	  18.475	   24.801	   46.015	   51.155	  	 
    4.00	    -7.00	  17.899	   23.482	   42.701	   47.634	  	 
    4.50	    -7.00	  18.719	   23.581	   41.764	   47.944	  	 
    5.00	    -7.00	  19.004	   24.268	   43.826	   49.277	  	 
    5.50	    -7.00	  20.620	   25.770	   46.793	   50.235	  	 
    6.00	    -7.00	  22.476	   28.625	   50.829	   54.499	  	 
    6.50	    -7.00	  23.995	   33.759	   62.978	   65.497	  	 
    7.00	    -7.00	  23.830	   34.395	   65.561	   67.855	  	 
    7.50	    -7.00	  21.728	   30.788	   56.663	   61.714	  	 
    8.00	    -7.00	  19.288	   25.312	   46.405	   50.656	  	 
    8.50	    -7.00	  16.946	   20.700	   38.023	   41.505	  	 
    9.00	    -7.00	  16.104	   18.316	   32.714	   36.150	  	 
    9.50	    -7.00	  16.736	   19.406	   33.702	   37.189	  	 
   10.00	    -7.00	  17.461	   19.917	   34.459	   38.219	  	 
   10.50	    -7.00	  18.031	   21.063	   37.317	   42.110	  	 
   11.00	    -7.00	  18.670	   22.321	   40.233	   43.194	  	 
   11.50	    -7.00	  20.092	   24.477	   43.410	   46.189	  	 
   12.00	    -7.00	  21.417	   25.281	   46.394	   49.118	  	 
   12.50	    -7.00	  23.236	   29.251	   54.502	   56.103	  	 
   13.00	    -7.00	  22.365	   28.470	   52.769	   54.567	  	 
   13.50	    -7.00	  21.591	   26.920	   50.197	   52.850	  	 
   14.00	    -7.00	  22.015	   27.876	   53.019	   54.837	  	 
   14.50	    -7.00	  22.449	   30.412	   57.999	   60.752	  	 
   15.00	    -7.00	  23.013	   32.975	   64.825	   67.601	  	 
   15.50	    -7.00	  22.681	   33.846	   68.609	   69.618	  	 
   16.00	    -7.00	  23.615	   36.286	   71.161	   71.645	  	 
   16.50	    -7.00	  24.273	   36.692	   70.172	   76.567	  	 
   17.00	    -7.00	  27.192	   45.475	   89.928	  124.847	  	 
   17.50	    -7.00	  33.031	   62.839	  128.402	  169.481	  	 
   18.00	    -7.00	  44.747	   85.843	  172.883	  204.998	  	 
   18.50	    -7.00	  53.300	   96.109	  177.020	  196.832	  	 
   19.00	    -7.00	  52.812	   97.936	  179.969	  192.196	  	 
   19.50	    -7.00	  39.560	   74.706	  157.472	  176.576	  	 
   20.00	    -7.00	  31.913	   60.302	  134.838	  151.558	  	 
   20.50	    -7.00	  27.076	   47.338	  104.581	  123.156	  	 
   21.00	    -7.00	  29.133	   41.084	   78.169	   99.404	  	 
   21.50	    -7.00	  26.989	   37.290	   72.683	   89.955	  	 
   22.00	    -7.00	  22.508	   33.112	   65.538	   77.407	  	 
   22.50	    -7.00	  21.602	   29.332	   56.776	   83.332	  	 
   23.00	    -7.00	  20.336	   28.830	   52.202	   70.454	  	 
   23.50	    -7.00	  20.255	   27.057	   51.017	   57.587	  	 
    0.00	    -5.00	  19.260	   25.995	   47.953	   51.827	  	 
    0.50	    -5.00	  18.992	   26.432	   48.394	   52.820	  	 
    1.00	    -5.00	  20.112	   27.647	   48.557	   52.305	  	 
    1.50	    -5.00	  19.985	   28.177	   49.954	   53.728	  	 
    2.00	    -5.00	  20.551	   28.121	   51.399	   54.792	  	 
    2.50	    -5.00	  19.486	   27.257	   55.217	   55.676	  	 
    3.00	    -5.00	  18.585	   25.925	   51.374	   53.564	  	 
    3.50	    -5.00	  17.946	   25.305	   46.482	   52.928	  	 
    4.00	    -5.00	  17.745	   24.092	   42.998	   48.401	  	 
    4.50	    -5.00	  18.276	   24.405	   42.664	   48.749	  	 
    5.00	    -5.00	  18.965	   25.372	   45.490	   50.595	  	 
    5.50	    -5.00	  20.178	   27.023	   48.204	   52.253	  	 
    6.00	    -5.00	  21.420	   29.671	   52.195	   56.679	  	 
    6.50	    -5.00	  23.738	   35.024	   65.334	   68.772	  	 
    7.00	    -5.00	  23.770	   35.394	   66.299	   70.040	  	 
    7.50	    -5.00	  21.035	   30.514	   56.271	   62.469	  	 
    8.00	    -5.00	  18.715	   25.074	   46.094	   51.029	  	 
    8.50	    -5.00	  16.450	   20.949	   37.485	   41.888	  	 
    9.00	    -5.00	  15.461	   18.191	   32.292	   36.193	  	 
    9.50	    -5.00	  16.007	   19.295	   33.173	   37.209	  	 
   10.00	    -5.00	  16.948	   19.658	   33.984	   38.318	  	 
   10.50	    -5.00	  17.793	   20.673	   36.806	   41.496	  	 
   11.00	    -5.00	  18.183	   21.776	   39.557	   42.986	  	 
   11.50	    -5.00	  19.540	   23.863	   42.855	   46.850	  	 
   12.00	    -5.00	  20.884	   25.320	   46.231	   49.527	  	 
   12.50	    -5.00	  23.735	   30.348	   55.476	   58.118	  	 
   13.00	    -5.00	  22.708	   29.129	   53.472	   56.545	  	 
   13.50	    -5.00	  21.510	   27.297	   50.394	   54.114	  	 
   14.00	    -5.00	  22.021	   28.365	   52.641	   55.729	  	 
   14.50	    -5.00	  22.788	   30.839	   57.855	   61.449	  	 
   15.00	    -5.00	  23.243	   33.282	   64.391	   68.308	  	 
   15.50	    -5.00	  23.260	   33.763	   67.956	   70.418	  	 
   16.00	    -5.00	  23.349	   36.506	   72.352	   71.058	  	 
   16.50	    -5.00	  23.821	   37.954	   73.179	   77.363	  	 
   17.00	    -5.00	  26.992	   46.275	   91.884	  125.377	  	 
   17.50	    -5.00	  32.793	   62.939	  126.860	  163.284	  	 
   18.00	    -5.00	  43.951	   87.405	  169.977	  201.809	  	 
   18.50	    -5.00	  53.444	  100.138	  176.575	  193.756	  	 
   19.00	    -5.00	  53.781	   97.955	  175.557	  188.211	  	 
   19.50	    -5.00	  39.954	   77.051	  157.014	  178.002	  	 
   20.00	    -5.00	  32.478	   59.446	  133.976	  149.021	  	 
   20.50	    -5.00	  28.203	   47.604	  103.082	  119.179	  	 
   21.00	    -5.00	  29.912	   42.753	   81.052	   97.812	  	 
   21.50	    -5.00	  25.951	   38.773	   74.069	   89.123	  	 
   22.00	    -5.00	  22.324	   33.253	   66.122	   74.434	  	 
   22.50	    -5.00	  21.059	   29.373	   56.835	   78.667	  	 
   23.00	    -5.00	  20.663	   29.233	   53.301	   70.467	  	 
   23.50	    -5.00	  20.318	   27.946	   51.251	   59.660	  	 
    0.00	    -3.00	  19.278	   27.508	   49.954	   57.029	  	 
    0.50	    -3.00	  19.008	   27.987	   49.918	   55.921	  	 
    1.00	    -3.00	  19.594	   29.233	   49.066	   53.812	  	 
    1.50	    -3.00	  19.846	   29.784	   50.257	   55.093	  	 
    2.00	    -3.00	  20.381	   29.815	   52.603	   58.238	  	 
    2.50	    -3.00	  19.460	   28.762	   55.869	   58.859	  	 
    3.00	    -3.00	  19.066	   26.869	   51.414	   55.918	  	 
    3.50	    -3.00	  18.178	   25.785	   46.494	   53.876	  	 
    4.00	    -3.00	  18.142	   25.043	   43.337	   48.375	  	 
    4.50	    -3.00	  18.565	   25.356	   44.072	   49.526	  	 
    5.00	    -3.00	  19.521	   26.679	   47.258	   52.384	  	 
    5.50	    -3.00	  20.731	   28.984	   49.495	   54.899	  	 
    6.00	    -3.00	  21.224	   30.810	   54.316	   58.512	  	 
    6.50	    -3.00	  24.027	   36.931	   66.856	   71.646	  	 
    7.00	    -3.00	  24.042	   36.239	   66.082	   71.699	  	 
    7.50	    -3.00	  21.123	   30.532	   55.690	   63.073	  	 
    8.00	    -3.00	  18.639	   25.538	   46.113	   50.680	  	 
    8.50	    -3.00	  16.618	   21.524	   37.681	   42.428	  	 
    9.00	    -3.00	  15.693	   18.288	   32.224	   36.737	  	 
    9.50	    -3.00	  16.101	   19.057	   32.739	   37.620	  	 
   10.00	    -3.00	  16.807	   19.742	   33.843	   38.198	  	 
   10.50	    -3.00	  17.459	   20.772	   36.518	   41.442	  	 
   11.00	    -3.00	  18.026	   21.683	   39.161	   43.592	  	 
   11.50	    -3.00	  19.384	   23.921	   42.564	   48.192	  	 
   12.00	    -3.00	  20.786	   25.581	   46.474	   50.118	  	 
